#depth[mm]	Amp[V]	HF [V]	TGC [dB]
0,0	0,315	0,007	0,315
0,1	0,588	0,022	0,315
0,3	0,910	0,999	0,000
0,4	1,199	-0,710	-0,157
0,5	1,387	-1,009	0,472
0,7	1,452	-1,009	0,630
0,8	1,421	0,999	0,315
1,0	1,349	0,999	0,000
1,1	1,280	0,999	-0,157
1,2	1,235	0,999	0,157
1,4	1,216	-1,009	0,472
1,5	1,221	0,306	0,315
1,6	1,247	0,999	0,000
1,8	1,283	-0,867	0,157
1,9	1,306	-1,009	0,315
2,0	1,284	-1,009	0,315
2,2	1,198	0,660	0,315
2,3	1,067	0,999	0,157
2,5	0,950	0,463	0,157
2,6	0,917	0,125	0,315
2,7	0,997	-1,009	0,157
2,9	1,153	-1,009	0,157
3,0	1,285	-0,182	0,157
3,1	1,290	0,999	0,157
3,3	1,121	0,999	0,157
3,4	0,822	-0,285	0,157
3,5	0,509	-0,458	0,157
3,7	0,294	-0,182	0,315
3,8	0,225	-0,237	0,157
4,0	0,262	-0,214	0,157
4,1	0,316	0,093	0,157
4,2	0,315	0,290	0,157
4,4	0,244	0,125	0,157
4,5	0,143	-0,080	0,157
4,6	0,067	-0,033	0,157
4,8	0,044	0,070	0,157
4,9	0,058	0,054	0,157
5,1	0,080	0,022	0,157
5,2	0,087	0,022	0,157
5,3	0,083	-0,041	0,315
5,5	0,084	-0,103	0,315
5,6	0,096	-0,017	0,157
5,7	0,110	0,093	0,157
5,9	0,109	0,054	0,157
6,0	0,087	-0,056	0,157
6,1	0,054	-0,056	0,157
6,3	0,030	-0,009	0,157
6,4	0,029	-0,025	0,157
6,6	0,046	-0,017	0,157
6,7	0,063	0,046	0,157
6,8	0,067	0,054	0,157
7,0	0,053	-0,009	0,157
7,1	0,032	-0,033	0,157
7,2	0,016	-0,009	0,157
7,4	0,011	-0,001	0,157
7,5	0,013	-0,001	0,157
7,6	0,015	0,007	0,157
7,8	0,014	0,007	0,157
7,9	0,014	-0,009	0,157
8,1	0,018	0,007	0,157
8,2	0,029	0,030	0,157
8,3	0,041	0,030	0,157
8,5	0,048	-0,001	0,157
8,6	0,047	-0,041	0,315
8,7	0,040	-0,033	0,157
8,9	0,034	-0,009	0,157
9,0	0,033	0,022	0,157
9,1	0,038	0,038	0,157
9,3	0,043	0,030	0,157
9,4	0,042	-0,001	0,157
9,6	0,036	-0,025	0,157
9,7	0,027	-0,025	0,157
9,8	0,021	-0,009	0,157
10,0	0,018	0,015	0,157
10,1	0,017	0,015	0,157
10,2	0,016	0,007	0,157
10,4	0,014	-0,001	0,157
10,5	0,012	-0,009	0,157
10,6	0,011	-0,001	0,157
10,8	0,011	0,007	0,157
10,9	0,012	0,007	0,157
11,1	0,012	-0,001	0,157
11,2	0,010	-0,009	0,157
11,3	0,008	-0,001	0,157
11,5	0,008	0,007	0,157
11,6	0,009	0,007	0,157
11,7	0,011	0,007	0,157
11,9	0,011	0,007	0,315
12,0	0,009	-0,001	0,157
12,1	0,008	-0,001	0,157
12,3	0,009	0,007	0,157
12,4	0,011	0,007	0,157
12,6	0,013	-0,001	0,157
12,7	0,013	-0,009	0,157
12,8	0,011	-0,001	0,157
13,0	0,009	0,007	0,157
13,1	0,010	0,007	0,157
13,2	0,012	0,015	0,157
13,4	0,016	0,007	0,157
13,5	0,018	0,007	0,157
13,7	0,016	-0,001	0,157
13,8	0,012	-0,009	0,157
13,9	0,010	-0,009	0,157
14,1	0,012	0,007	0,157
14,2	0,018	0,015	0,157
14,3	0,025	0,022	0,157
14,5	0,029	-0,001	0,157
14,6	0,026	-0,017	0,157
14,7	0,020	-0,017	0,157
14,9	0,014	-0,009	0,157
15,0	0,014	0,007	0,157
15,2	0,018	0,022	0,157
15,3	0,023	0,015	0,157
15,4	0,023	-0,001	0,157
15,6	0,017	-0,001	0,157
15,7	0,008	-0,001	0,157
15,8	0,004	-0,009	0,157
16,0	0,006	-0,001	0,157
16,1	0,011	0,007	0,157
16,2	0,014	0,007	0,157
16,4	0,011	-0,001	0,945
16,5	0,005	-0,001	3,465
16,7	0,004	0,007	5,669
16,8	0,010	0,007	7,244
16,9	0,018	-0,001	8,189
17,1	0,019	-0,001	8,661
17,2	0,009	-0,001	8,976
17,3	0,001	-0,001	9,134
17,5	0,003	0,015	9,291
17,6	0,021	0,015	9,449
17,7	0,042	-0,001	9,449
17,9	0,043	-0,009	9,449
18,0	0,020	-0,017	9,606
18,2	0,001	-0,017	9,606
18,3	0,028	-0,041	9,606
18,4	0,136	0,022	9,764
18,6	0,316	0,290	9,764
18,7	0,523	0,180	9,764
18,8	0,707	-0,552	9,764
19,0	0,848	-0,749	9,764
19,1	0,961	0,282	9,764
19,2	1,059	0,999	9,764
19,4	1,126	0,519	9,764
19,5	1,114	-0,781	9,921
19,7	0,987	-0,922	9,921
19,8	0,769	-0,103	9,921
19,9	0,547	0,432	9,921
20,1	0,431	0,400	10,079
20,2	0,474	0,385	10,079
20,3	0,645	0,180	10,079
20,5	0,854	-0,647	10,079
20,6	1,015	-0,946	10,079
20,7	1,091	0,219	10,079
20,9	1,092	0,999	10,079
21,0	1,040	0,456	10,079
21,2	0,937	-0,781	10,236
21,3	0,777	-0,655	10,236
21,4	0,574	0,101	10,236
21,6	0,378	0,314	10,236
21,7	0,254	0,219	10,236
21,8	0,233	0,211	10,394
22,0	0,291	0,022	10,394
22,1	0,363	-0,308	10,394
22,2	0,391	-0,324	10,394
22,4	0,362	-0,025	10,394
22,5	0,304	0,243	10,394
22,7	0,256	0,259	10,394
22,8	0,231	0,078	10,551
22,9	0,215	-0,135	10,551
23,1	0,187	-0,174	10,551
23,2	0,141	-0,064	10,551
23,3	0,093	0,030	10,709
23,5	0,064	0,054	10,709
23,6	0,061	0,070	10,709
23,8	0,073	0,054	10,709
23,9	0,082	-0,009	10,709
24,0	0,075	-0,064	10,709
24,2	0,057	-0,041	10,709
24,3	0,037	0,015	10,709
24,4	0,024	0,030	10,709
24,6	0,017	0,007	10,866
24,7	0,014	-0,001	10,866
24,8	0,011	0,007	10,866
25,0	0,009	0,007	11,024
25,1	0,011	-0,009	11,024
25,3	0,014	-0,009	11,024
25,4	0,018	0,015	11,024
25,5	0,017	0,007	11,024
25,7	0,014	-0,009	11,024
25,8	0,012	-0,009	11,024
25,9	0,012	0,007	11,024
26,1	0,016	0,015	11,181
26,2	0,021	0,015	11,181
26,3	0,026	0,007	11,181
26,5	0,029	-0,025	11,181
26,6	0,031	-0,025	11,339
26,8	0,032	0,007	11,339
26,9	0,032	0,030	11,339
27,0	0,030	0,022	11,339
27,2	0,025	-0,009	11,339
27,3	0,019	-0,017	11,339
27,4	0,015	-0,001	11,339
27,6	0,012	0,015	11,339
27,7	0,012	0,007	11,339
27,8	0,011	-0,001	11,496
28,0	0,011	-0,009	11,496
28,1	0,011	-0,001	11,496
28,3	0,011	0,007	11,654
28,4	0,012	0,015	11,654
28,5	0,012	-0,001	11,654
28,7	0,011	-0,001	11,654
28,8	0,008	-0,001	11,654
28,9	0,006	-0,001	11,654
29,1	0,004	-0,001	11,654
29,2	0,005	-0,001	11,654
29,3	0,006	-0,001	11,654
29,5	0,007	-0,001	11,811
29,6	0,008	-0,001	11,811
29,8	0,009	-0,009	11,811
29,9	0,011	-0,009	11,969
30,0	0,014	0,007	11,969
30,2	0,017	0,015	11,969
30,3	0,018	0,007	11,969
30,4	0,015	-0,009	11,969
30,6	0,010	-0,009	11,969
30,7	0,005	-0,001	11,969
30,8	0,004	-0,001	11,969
31,0	0,007	-0,009	11,969
31,1	0,014	0,007	12,126
31,3	0,019	0,015	12,126
31,4	0,021	-0,001	12,126
31,5	0,018	-0,017	12,283
31,7	0,013	-0,009	12,283
31,8	0,009	0,007	12,283
31,9	0,008	0,007	12,283
32,1	0,008	-0,001	12,283
32,2	0,009	-0,001	12,283
32,4	0,008	-0,009	12,283
32,5	0,006	-0,001	12,441
32,6	0,005	-0,001	12,441
32,8	0,005	-0,001	12,441
32,9	0,008	-0,009	12,441
33,0	0,010	-0,001	12,441
33,2	0,010	0,007	12,598
33,3	0,008	0,007	12,598
33,4	0,005	-0,001	12,598
33,6	0,004	-0,001	12,598
33,7	0,006	-0,001	12,598
33,9	0,009	0,007	12,598
34,0	0,012	0,007	12,756
34,1	0,011	-0,001	12,598
34,3	0,011	-0,009	12,756
34,4	0,014	-0,009	12,756
34,5	0,024	0,015	12,756
34,7	0,042	0,038	12,756
34,8	0,066	0,015	12,756
34,9	0,093	-0,080	12,913
35,1	0,120	-0,096	12,913
35,2	0,142	0,046	12,913
35,4	0,158	0,156	12,913
35,5	0,165	0,070	12,913
35,6	0,163	-0,103	12,913
35,8	0,153	-0,151	13,071
35,9	0,141	-0,048	13,071
36,0	0,129	0,085	13,071
36,2	0,121	0,117	13,071
36,3	0,116	0,046	13,071
36,4	0,111	-0,064	13,228
36,6	0,103	-0,103	13,228
36,7	0,094	-0,041	13,228
36,9	0,084	0,054	13,228
37,0	0,075	0,070	13,228
37,1	0,066	-0,001	13,228
37,3	0,058	-0,056	13,228
37,4	0,051	-0,033	13,228
37,5	0,047	0,022	13,386
37,7	0,046	0,046	13,386
37,8	0,046	0,007	13,386
37,9	0,043	-0,033	13,386
38,1	0,035	-0,033	13,543
38,2	0,022	-0,001	13,543
38,4	0,009	0,007	13,543
38,5	0,003	-0,001	13,543
38,6	0,006	0,007	13,543
38,8	0,016	0,015	13,543
38,9	0,026	0,007	13,543
39,0	0,031	-0,017	13,543
39,2	0,031	-0,033	13,701
39,3	0,028	-0,009	13,701
39,4	0,027	0,022	13,701
39,6	0,026	0,015	13,701
39,7	0,025	-0,017	13,858
39,9	0,020	-0,017	13,858
40,0	0,013	0,007	13,858
40,1	0,006	0,007	13,858
40,3	0,005	-0,001	13,858
40,4	0,011	-0,001	13,858
40,5	0,021	0,015	13,858
40,7	0,030	-0,009	13,858
40,8	0,037	-0,041	14,016
41,0	0,041	-0,017	14,016
41,1	0,042	0,030	14,016
41,2	0,042	0,030	14,016
41,4	0,038	-0,017	14,173
41,5	0,030	-0,033	14,173
41,6	0,020	-0,009	14,173
41,8	0,012	0,007	14,173
41,9	0,009	0,007	14,173
42,0	0,012	0,007	14,173
42,2	0,016	-0,001	14,173
42,3	0,018	-0,017	14,173
42,5	0,016	-0,017	14,331
42,6	0,013	-0,001	14,331
42,7	0,013	0,007	14,331
42,9	0,017	0,015	14,331
43,0	0,022	-0,009	14,488
43,1	0,026	-0,025	14,488
43,3	0,024	-0,017	14,488
43,4	0,020	0,007	14,488
43,5	0,017	0,015	14,488
43,7	0,018	0,015	14,488
43,8	0,021	-0,001	14,488
44,0	0,025	-0,017	14,488
44,1	0,026	-0,025	14,646
44,2	0,025	-0,017	14,646
44,4	0,023	0,007	14,646
44,5	0,021	0,022	14,646
44,6	0,021	0,007	14,646
44,8	0,020	-0,009	14,803
44,9	0,017	-0,017	14,803
45,0	0,013	-0,009	14,803
45,2	0,008	-0,009	14,803
45,3	0,005	-0,001	14,803
45,5	0,004	-0,001	14,803
45,6	0,005	0,007	14,803
45,7	0,007	-0,001	14,961
45,9	0,011	0,007	14,961
46,0	0,016	-0,001	14,961
46,1	0,022	-0,017	14,961
46,3	0,025	-0,025	15,118
46,4	0,025	-0,009	15,118
46,5	0,020	0,015	15,118
46,7	0,015	0,015	15,118
46,8	0,013	-0,009	15,118
47,0	0,016	0,007	15,118
47,1	0,026	0,015	15,118
47,2	0,037	-0,017	15,118
47,4	0,046	-0,048	15,118
47,5	0,048	-0,017	15,276
47,6	0,044	0,030	15,276
47,8	0,035	0,030	15,276
47,9	0,026	-0,001	15,433
48,0	0,019	-0,017	15,433
48,2	0,018	-0,009	15,433
48,3	0,020	-0,017	15,433
48,5	0,023	-0,025	15,433
48,6	0,024	-0,009	15,433
48,7	0,022	0,015	15,433
48,9	0,017	0,015	15,433
49,0	0,013	0,007	15,433
49,1	0,013	-0,001	15,591
49,3	0,017	-0,009	15,591
49,4	0,024	-0,017	15,591
49,5	0,031	-0,033	15,748
49,7	0,037	-0,017	15,748
49,8	0,042	0,022	15,591
50,0	0,047	0,046	15,748
50,1	0,053	0,015	15,748
50,2	0,055	-0,041	15,748
50,4	0,052	-0,048	15,748
50,5	0,043	-0,017	15,748
50,6	0,032	0,022	15,906
50,8	0,022	0,022	15,906
50,9	0,017	0,007	15,906
51,1	0,018	-0,001	15,906
51,2	0,021	-0,009	16,063
51,3	0,022	-0,025	16,063
51,5	0,021	-0,017	16,063
51,6	0,019	0,007	16,063
51,7	0,020	0,015	16,063
51,9	0,022	0,015	16,063
52,0	0,025	-0,009	16,063
52,1	0,026	-0,025	16,063
52,3	0,025	-0,025	16,220
52,4	0,023	-0,001	16,220
52,6	0,024	0,015	16,220
52,7	0,028	0,022	16,220
52,8	0,033	-0,017	16,220
53,0	0,039	-0,041	16,378
53,1	0,042	-0,017	16,378
53,2	0,043	0,030	16,378
53,4	0,042	0,030	16,378
53,5	0,039	-0,009	16,378
53,6	0,035	-0,041	16,378
53,8	0,030	-0,017	16,378
53,9	0,026	0,015	16,378
54,1	0,024	0,007	16,535
54,2	0,024	-0,025	16,535
54,3	0,025	-0,025	16,535
54,5	0,026	0,007	16,535
54,6	0,027	0,022	16,535
54,7	0,027	0,007	16,535
54,9	0,028	-0,017	16,693
55,0	0,027	-0,033	16,693
55,1	0,025	-0,009	16,693
55,3	0,021	0,015	16,693
55,4	0,017	0,007	16,693
55,6	0,014	-0,009	16,693
55,7	0,013	-0,017	16,850
55,8	0,013	-0,009	16,850
56,0	0,012	-0,001	16,850
56,1	0,010	0,007	16,850
56,2	0,007	-0,001	16,850
56,4	0,006	-0,009	16,850
56,5	0,008	0,007	17,008
56,6	0,012	-0,001	17,008
56,8	0,016	-0,009	17,008
56,9	0,017	-0,017	17,008
57,1	0,015	-0,009	17,008
57,2	0,012	0,007	17,008
57,3	0,009	0,007	17,165
57,5	0,009	0,007	17,165
57,6	0,011	-0,001	17,165
57,7	0,013	-0,009	17,323
57,9	0,015	-0,017	17,165
58,0	0,016	-0,009	17,165
58,1	0,016	0,007	17,323
58,3	0,017	0,015	17,323
58,4	0,018	-0,001	17,323
58,6	0,018	-0,017	17,323
58,7	0,016	-0,017	17,323
58,8	0,013	-0,001	17,323
59,0	0,011	0,007	17,480
59,1	0,009	-0,001	17,480
59,2	0,008	-0,009	17,480
59,4	0,007	-0,009	17,480
59,5	0,007	-0,001	17,638
59,7	0,006	-0,001	17,480
59,8	0,006	-0,001	17,638
59,9	0,005	-0,001	17,638
60,1	0,005	-0,009	17,638
60,2	0,004	-0,001	17,638
60,3	0,003	-0,001	17,638
60,5	0,003	-0,001	17,638
60,6	0,003	-0,001	17,638
60,7	0,005	-0,009	17,795
60,9	0,006	-0,001	17,795
61,0	0,007	-0,009	17,795
61,2	0,007	-0,001	17,795
61,3	0,007	-0,009	17,795
61,4	0,008	-0,001	17,953
61,6	0,010	-0,009	17,953
61,7	0,014	-0,001	17,953
61,8	0,020	0,015	17,953
62,0	0,027	0,022	17,953
62,1	0,036	-0,001	17,953
62,2	0,044	-0,041	18,110
62,4	0,049	-0,041	18,110
62,5	0,048	0,007	18,110
62,7	0,043	0,038	18,268
62,8	0,033	0,022	18,268
62,9	0,024	-0,017	18,268
63,1	0,020	-0,009	18,268
63,2	0,021	0,015	18,268
63,3	0,027	-0,009	18,268
63,5	0,033	-0,033	18,268
63,6	0,037	-0,033	18,268
63,7	0,036	-0,001	18,268
63,9	0,031	0,022	18,425
64,0	0,023	0,022	18,425
64,2	0,018	0,007	18,425
64,3	0,015	-0,001	18,425
64,4	0,016	-0,009	18,425
64,6	0,019	-0,017	18,425
64,7	0,022	-0,017	18,583
64,8	0,025	-0,025	18,583
65,0	0,026	-0,001	18,583
65,1	0,027	0,022	18,583
65,2	0,029	0,022	18,583
65,4	0,030	-0,001	18,583
65,5	0,029	-0,025	18,740
65,7	0,027	-0,025	18,740
65,8	0,021	-0,017	18,740
65,9	0,015	-0,001	18,740
66,1	0,010	0,007	18,740
66,2	0,009	0,007	18,740
66,3	0,012	0,007	18,898
66,5	0,016	-0,009	18,898
66,6	0,019	-0,017	18,898
66,7	0,018	-0,017	18,898
66,9	0,014	-0,009	18,898
67,0	0,010	-0,001	18,898
67,2	0,008	0,007	19,055
67,3	0,009	-0,001	19,055
67,4	0,012	-0,009	19,055
67,6	0,015	-0,017	19,055
67,7	0,016	-0,009	19,055
67,8	0,014	-0,009	19,055
68,0	0,012	0,007	19,213
68,1	0,010	0,007	19,213
68,3	0,009	-0,001	19,213
68,4	0,009	-0,009	19,213
68,5	0,009	-0,009	19,213
68,7	0,009	-0,009	19,213
68,8	0,008	-0,001	19,213
68,9	0,007	-0,001	19,370
69,1	0,006	-0,001	19,370
69,2	0,006	-0,009	19,370
69,3	0,006	-0,001	19,370
69,5	0,007	-0,001	19,370
69,6	0,009	-0,001	19,528
69,8	0,010	-0,009	19,528
69,9	0,009	-0,009	19,528
70,0	0,007	-0,001	19,528
70,2	0,004	-0,001	19,528
70,3	0,003	-0,001	19,528
70,4	0,004	-0,001	19,685
70,6	0,007	-0,009	19,685
70,7	0,009	-0,001	19,685
70,8	0,009	-0,009	19,685
71,0	0,008	-0,001	19,685
71,1	0,008	-0,001	19,685
71,3	0,010	-0,001	19,843
71,4	0,014	-0,009	19,843
71,5	0,015	-0,017	19,843
71,7	0,014	-0,009	19,843
71,8	0,010	-0,001	19,843
71,9	0,007	-0,001	19,843
72,1	0,008	-0,001	20,000
72,2	0,012	-0,009	20,000
72,3	0,017	-0,017	20,000
72,5	0,019	-0,009	20,000
72,6	0,017	-0,001	20,000
72,8	0,012	0,007	20,000
72,9	0,008	0,007	20,000
73,0	0,007	-0,001	20,000
73,2	0,009	-0,001	20,157
73,3	0,012	-0,009	20,157
73,4	0,013	-0,009	20,157
73,6	0,013	-0,001	20,315
73,7	0,010	-0,001	20,315
73,8	0,008	0,007	20,157
74,0	0,006	-0,001	20,315
74,1	0,005	-0,001	20,315
74,3	0,005	-0,001	20,472
74,4	0,007	-0,001	20,472
74,5	0,009	0,007	20,472
74,7	0,010	-0,001	20,472
74,8	0,010	-0,001	20,472
74,9	0,010	-0,001	20,472
75,1	0,009	-0,001	20,472
75,2	0,009	-0,001	20,472
75,3	0,009	-0,001	20,630
75,5	0,010	-0,001	20,630
75,6	0,011	-0,001	20,630
75,8	0,011	-0,001	20,630
75,9	0,011	-0,001	20,630
76,0	0,011	0,007	20,787
76,2	0,011	-0,001	20,787
76,3	0,012	-0,009	20,787
76,4	0,012	-0,009	20,787
76,6	0,013	-0,001	20,787
76,7	0,012	-0,001	20,787
76,8	0,011	0,007	20,787
77,0	0,010	-0,001	20,787
77,1	0,011	-0,009	20,945
77,3	0,012	-0,009	20,945
77,4	0,013	-0,001	20,945
77,5	0,012	-0,001	20,945
77,7	0,011	-0,001	20,945
77,8	0,011	0,007	20,945
77,9	0,013	-0,001	21,102
78,1	0,016	-0,001	21,102
78,2	0,019	-0,001	21,102
78,4	0,018	-0,001	21,102
78,5	0,014	-0,001	21,102
78,6	0,011	-0,001	21,260
78,8	0,014	-0,009	21,260
78,9	0,022	-0,001	21,260
79,0	0,030	-0,009	21,260
79,2	0,031	-0,001	21,260
79,3	0,024	0,007	21,260
79,4	0,017	-0,001	21,417
79,6	0,018	-0,009	21,260
79,7	0,031	-0,001	21,417
79,9	0,045	0,007	21,417
80,0	0,046	0,007	21,417
80,1	0,034	-0,001	21,417
80,3	0,037	-0,048	21,575
80,4	0,096	-0,064	21,575
80,5	0,244	0,125	21,575
80,7	0,479	0,432	21,575
80,8	0,751	0,188	21,575
80,9	0,993	-0,844	21,575
81,1	1,152	-1,009	21,732
81,2	1,221	0,227	21,575
81,4	1,234	0,999	21,575
81,5	1,238	0,999	21,732
81,6	1,256	-0,836	21,732
81,8	1,278	-1,009	21,890
81,9	1,265	-0,844	21,732
82,0	1,187	0,605	21,732
82,2	1,043	0,999	21,732
82,3	0,864	0,613	21,890
82,4	0,694	-0,025	21,890
82,6	0,561	-0,434	21,890
82,7	0,467	-0,474	21,890
82,9	0,395	-0,206	21,890
83,0	0,328	0,093	21,890
83,1	0,264	0,227	22,047
83,3	0,211	0,196	22,047
83,4	0,180	0,109	22,047
83,5	0,172	-0,033	22,205
83,7	0,173	-0,151	22,205
83,8	0,169	-0,151	22,205
83,9	0,152	-0,041	22,205
84,1	0,123	0,070	22,205
84,2	0,090	0,093	22,205
84,4	0,061	0,038	22,205
84,5	0,040	-0,009	22,205
84,6	0,026	-0,017	22,362
84,8	0,020	-0,009	22,362
84,9	0,020	-0,009	22,362
85,0	0,027	-0,017	22,362
85,2	0,037	-0,033	22,362
85,3	0,047	-0,017	22,362
85,4	0,051	0,022	22,520
85,6	0,049	0,046	22,520
85,7	0,045	0,030	22,520
85,9	0,042	-0,009	22,520
86,0	0,043	-0,041	22,677
86,1	0,047	-0,041	22,520
86,3	0,049	-0,009	22,677
86,4	0,047	0,022	22,677
86,5	0,043	0,038	22,677
86,7	0,038	0,030	22,677
86,8	0,034	0,015	22,677
87,0	0,032	-0,025	22,677
87,1	0,032	-0,025	22,835
87,2	0,032	-0,025	22,835
87,4	0,030	-0,001	22,835
87,5	0,028	0,015	22,835
87,6	0,024	0,022	22,835
87,8	0,021	0,015	22,835
87,9	0,018	0,015	22,992
88,0	0,016	-0,001	22,992
88,2	0,015	-0,009	22,992
88,3	0,015	-0,017	22,992
88,5	0,017	-0,009	22,992
88,6	0,020	-0,009	22,992
88,7	0,021	0,007	23,150
88,9	0,021	0,015	23,150
89,0	0,020	0,022	23,150
89,1	0,019	0,007	23,150
89,3	0,018	-0,009	23,307
89,4	0,018	-0,017	23,307
89,5	0,018	-0,009	23,307
89,7	0,018	0,007	23,307
89,8	0,016	0,015	23,307
90,0	0,013	0,007	23,307
90,1	0,010	-0,001	23,307
90,2	0,008	-0,009	23,307
90,4	0,008	-0,001	23,465
90,5	0,010	-0,001	23,465
90,6	0,011	0,007	23,465
90,8	0,013	0,015	23,465
90,9	0,014	0,007	23,622
91,0	0,015	-0,001	23,622
91,2	0,015	-0,017	23,622
91,3	0,015	-0,009	23,622
91,5	0,014	-0,001	23,622
91,6	0,013	0,007	23,622
91,7	0,012	0,007	23,622
91,9	0,012	-0,009	23,622
92,0	0,012	-0,009	23,780
92,1	0,012	-0,001	23,780
92,3	0,012	0,007	23,780
92,4	0,012	0,007	23,780
92,5	0,012	-0,001	23,780
92,7	0,014	-0,009	23,780
92,8	0,015	0,007	23,937
93,0	0,014	0,007	23,937
93,1	0,012	0,015	23,937
93,2	0,009	-0,001	23,937
93,4	0,007	-0,001	23,937
93,5	0,007	-0,009	23,937
93,6	0,008	-0,001	24,094
93,8	0,011	-0,001	24,094
93,9	0,013	0,007	24,094
94,0	0,014	0,015	24,094
94,2	0,017	0,015	24,094
94,3	0,021	-0,001	24,094
94,5	0,026	-0,017	24,252
94,6	0,032	-0,033	24,252
94,7	0,036	-0,001	24,252
94,9	0,037	0,030	24,252
95,0	0,037	0,030	24,252
95,1	0,036	-0,009	24,252
95,3	0,034	-0,033	24,409
95,4	0,033	-0,025	24,409
95,5	0,030	0,007	24,409
95,7	0,027	0,022	24,409
95,8	0,023	0,015	24,409
96,0	0,021	-0,017	24,409
96,1	0,021	-0,017	24,567
96,2	0,022	-0,009	24,567
96,4	0,024	0,015	24,567
96,5	0,024	0,022	24,567
96,6	0,022	0,007	24,567
96,8	0,019	-0,017	24,567
96,9	0,015	-0,009	24,724
97,1	0,013	-0,001	24,724
97,2	0,012	0,015	24,724
97,3	0,014	0,007	24,724
97,5	0,016	-0,009	24,724
97,6	0,018	-0,017	24,724
97,7	0,018	-0,009	24,882
97,9	0,017	0,007	24,882
98,0	0,017	0,015	24,882
98,1	0,019	0,015	24,882
98,3	0,025	-0,009	24,882
98,4	0,033	-0,033	24,882
98,6	0,042	-0,009	24,882
98,7	0,050	0,038	25,039
98,8	0,058	0,054	25,039
99,0	0,066	0,007	25,039
99,1	0,073	-0,064	25,039
99,2	0,078	-0,064	25,039
99,4	0,077	0,007	25,197
99,5	0,071	0,062	25,197
99,6	0,061	0,054	25,197
99,8	0,051	-0,001	25,197
99,9	0,046	-0,041	25,197
100,1	0,044	-0,033	25,197
100,2	0,045	0,015	25,354
100,3	0,047	0,046	25,354
100,5	0,048	0,030	25,354
100,6	0,051	-0,017	25,354
100,7	0,056	-0,056	25,512
100,9	0,064	-0,041	25,354
101,0	0,073	0,022	25,512
101,1	0,079	0,078	25,354
101,3	0,080	0,054	25,512
101,4	0,076	-0,017	25,512
101,6	0,067	-0,072	25,512
101,7	0,057	-0,025	25,512
101,8	0,047	0,022	25,512
102,0	0,038	0,038	25,669
102,1	0,031	-0,001	25,669
102,2	0,026	-0,025	25,669
102,4	0,023	-0,001	25,669
102,5	0,022	0,022	25,669
102,6	0,023	0,015	25,827
102,8	0,023	-0,001	25,669
102,9	0,024	-0,025	25,827
103,1	0,023	-0,017	25,827
103,2	0,021	-0,001	25,827
103,3	0,018	0,007	25,827
103,5	0,016	0,015	25,827
103,6	0,016	0,015	25,984
103,7	0,018	0,007	25,984
103,9	0,021	-0,017	25,984
104,0	0,024	-0,017	25,984
104,1	0,024	-0,009	25,984
104,3	0,023	0,022	26,142
104,4	0,019	0,015	25,984
104,6	0,016	0,007	26,142
104,7	0,015	-0,009	26,142
104,8	0,015	-0,017	26,142
105,0	0,016	-0,001	26,142
105,1	0,016	0,007	26,299
105,2	0,015	0,015	26,299
105,4	0,013	0,007	26,299
105,5	0,012	-0,009	26,299
105,7	0,012	-0,009	26,299
105,8	0,012	-0,009	26,299
105,9	0,012	-0,001	26,299
106,1	0,010	0,007	26,299
106,2	0,008	0,007	26,457
106,3	0,007	0,007	26,457
106,5	0,007	-0,001	26,457
106,6	0,008	0,007	26,457
106,7	0,009	-0,001	26,614
106,9	0,010	-0,009	26,614
107,0	0,010	-0,001	26,614
107,2	0,010	-0,001	26,614
107,3	0,011	0,007	26,614
107,4	0,011	0,015	26,614
107,6	0,012	0,007	26,772
107,7	0,013	-0,001	26,772
107,8	0,014	-0,009	26,772
108,0	0,016	-0,017	26,772
108,1	0,017	-0,009	26,772
108,2	0,018	0,007	26,772
108,4	0,019	0,015	26,772
108,5	0,018	0,015	26,929
108,7	0,017	-0,001	26,929
108,8	0,015	-0,017	26,929
108,9	0,013	-0,009	26,929
109,1	0,011	-0,001	26,929
109,2	0,010	-0,001	26,929
109,3	0,009	0,007	26,929
109,5	0,009	0,007	26,929
109,6	0,008	0,007	27,087
109,7	0,008	-0,001	27,087
109,9	0,008	-0,001	27,087
110,0	0,008	-0,001	27,087
110,2	0,009	-0,009	27,244
110,3	0,011	-0,001	27,244
110,4	0,011	-0,001	27,244
110,6	0,011	0,015	27,244
110,7	0,011	-0,001	27,244
110,8	0,011	-0,009	27,402
111,0	0,012	-0,009	27,244
111,1	0,012	-0,001	27,402
111,2	0,011	0,007	27,402
111,4	0,008	0,007	27,402
111,5	0,006	0,007	27,402
111,7	0,005	-0,001	27,402
111,8	0,006	-0,001	27,559
111,9	0,008	-0,009	27,559
112,1	0,010	-0,001	27,559
112,2	0,010	0,007	27,559
112,3	0,010	0,007	27,559
112,5	0,009	-0,001	27,559
112,6	0,010	-0,009	27,717
112,7	0,011	-0,009	27,717
112,9	0,012	0,007	27,717
113,0	0,013	-0,001	27,717
113,2	0,013	0,007	27,717
113,3	0,012	0,007	27,717
113,4	0,011	0,015	27,874
113,6	0,011	0,007	27,874
113,7	0,012	0,007	27,874
113,8	0,012	-0,001	27,874
114,0	0,011	-0,009	27,874
114,1	0,011	-0,001	27,874
114,3	0,010	0,007	28,031
114,4	0,011	0,007	27,874
114,5	0,012	0,015	28,031
114,7	0,014	0,007	28,031
114,8	0,015	0,007	28,031
114,9	0,014	-0,001	28,031
115,1	0,014	-0,017	28,189
115,2	0,015	-0,009	28,189
115,3	0,019	-0,001	28,189
115,5	0,025	0,007	28,189
115,6	0,030	0,022	28,189
115,8	0,033	0,038	28,189
115,9	0,030	0,007	28,189
116,0	0,024	-0,009	28,346
116,2	0,018	-0,017	28,346
116,3	0,013	-0,001	28,346
116,4	0,011	0,015	28,346
116,6	0,011	-0,001	28,346
116,7	0,012	-0,001	28,504
116,8	0,013	-0,009	28,504
117,0	0,013	-0,009	28,504
117,1	0,013	0,007	28,504
117,3	0,011	0,007	28,504
117,4	0,010	0,007	28,504
117,5	0,008	-0,009	28,504
117,7	0,008	-0,001	28,661
117,8	0,009	0,007	28,661
117,9	0,009	-0,001	28,661
118,1	0,010	-0,009	28,661
118,2	0,009	-0,001	28,661
118,3	0,009	0,007	28,819
118,5	0,009	0,007	28,819
118,6	0,011	0,007	28,661
118,8	0,014	-0,001	28,819
118,9	0,016	-0,017	28,819
119,0	0,015	-0,009	28,819
119,2	0,013	-0,001	28,976
119,3	0,010	0,007	28,819
119,4	0,008	0,007	28,976
119,6	0,009	-0,009	28,976
119,7	0,010	-0,001	28,976
119,8	0,011	-0,001	28,976
120,0	0,010	-0,001	29,134
120,1	0,009	0,007	29,134
120,3	0,008	0,007	29,134
120,4	0,009	-0,001	29,134
120,5	0,010	-0,001	29,134
120,7	0,012	-0,001	29,134
120,8	0,013	-0,009	29,134
120,9	0,011	0,007	29,134
121,1	0,008	-0,001	29,291
121,2	0,006	0,007	29,291
121,3	0,005	-0,001	29,291
121,5	0,006	-0,001	29,291
121,6	0,008	0,007	29,449
121,8	0,012	-0,001	29,449
121,9	0,014	-0,001	29,449
122,0	0,015	0,015	29,449
122,2	0,014	0,007	29,449
122,3	0,013	0,015	29,449
122,4	0,012	-0,001	29,449
122,6	0,011	-0,009	29,449
122,7	0,011	-0,009	29,606
122,8	0,010	-0,001	29,606
123,0	0,009	0,007	29,606
123,1	0,008	-0,001	29,606
123,3	0,008	0,007	29,764
123,4	0,008	0,007	29,764
123,5	0,009	-0,001	29,764
123,7	0,009	-0,001	29,764
123,8	0,007	-0,001	29,764
123,9	0,005	0,007	29,764
124,1	0,004	-0,001	29,764
124,2	0,005	-0,001	29,764
124,4	0,007	0,007	29,921
124,5	0,009	-0,001	29,921
124,6	0,008	-0,001	29,921
124,8	0,005	-0,001	29,921
124,9	0,003	-0,001	30,079
125,0	0,004	-0,001	30,079
125,2	0,009	-0,001	29,921
125,3	0,014	-0,009	30,079
125,4	0,017	0,015	30,079
125,6	0,014	0,007	30,079
125,7	0,010	-0,001	30,079
125,9	0,007	-0,001	30,079
126,0	0,008	-0,001	30,236
126,1	0,012	-0,009	30,236
126,3	0,015	0,007	30,236
126,4	0,017	0,007	30,236
126,5	0,016	0,007	30,236
126,7	0,015	0,015	30,236
126,8	0,015	0,007	30,236
126,9	0,016	-0,001	30,236
127,1	0,015	-0,017	30,236
127,2	0,013	0,007	30,236
127,4	0,011	0,007	30,236
127,5	0,009	-0,001	30,236
127,6	0,010	-0,009	30,079
127,8	0,012	-0,009	30,236
127,9	0,013	0,007	30,236
128,0	0,013	-0,001	30,236
128,2	0,012	-0,001	30,236
128,3	0,013	0,007	30,079
128,4	0,014	0,015	30,236
128,6	0,016	-0,009	30,236
128,7	0,016	0,007	30,236
128,9	0,015	0,007	30,236
129,0	0,015	0,007	30,236
129,1	0,016	-0,009	30,079
129,3	0,019	-0,001	30,236
129,4	0,022	-0,001	30,236
129,5	0,023	-0,001	30,236
129,7	0,021	0,022	30,079
129,8	0,017	-0,001	30,236
129,9	0,013	0,007	30,236
130,1	0,011	-0,001	30,236
130,2	0,010	0,015	30,236
130,4	0,011	-0,001	30,236
130,5	0,012	-0,001	30,236
130,6	0,013	-0,009	30,236
130,8	0,012	0,007	30,236
130,9	0,011	0,007	30,236
131,0	0,010	0,007	30,236
131,2	0,011	0,007	30,079
131,3	0,013	-0,001	30,236
131,4	0,016	-0,009	30,236
131,6	0,018	-0,009	30,236
131,7	0,019	0,007	30,236
131,9	0,017	0,015	30,236
132,0	0,014	-0,001	30,079
132,1	0,012	-0,001	30,079
132,3	0,014	0,007	30,236
132,4	0,018	-0,001	30,236
132,5	0,022	-0,017	30,236
132,7	0,022	-0,001	30,236
132,8	0,020	-0,001	30,236
133,0	0,017	0,022	30,236
133,1	0,015	0,007	30,236
133,2	0,015	-0,001	30,236
133,4	0,017	-0,001	30,236
133,5	0,017	0,007	30,236
133,6	0,015	-0,009	30,236
133,8	0,011	0,007	30,236
133,9	0,009	-0,001	30,236
134,0	0,010	-0,001	30,236
134,2	0,013	0,007	30,079
134,3	0,016	-0,001	30,236
134,5	0,018	-0,001	30,236
134,6	0,019	-0,001	30,236
134,7	0,020	-0,009	30,236
134,9	0,021	0,007	30,236
135,0	0,022	0,015	30,236
135,1	0,022	0,007	30,236
135,3	0,020	-0,001	30,079
135,4	0,018	0,007	30,236
135,5	0,017	-0,001	30,236
135,7	0,018	-0,001	30,236
135,8	0,020	0,007	30,236
136,0	0,022	0,015	30,236
136,1	0,023	0,007	30,236
136,2	0,023	-0,001	30,236
136,4	0,024	0,007	30,236
